
Continuum:          CURRENT:4

Date/Time Stored:   Mon Jul 22, 2002 11:01:36
Application:        Cary
Method:             SAMPLES:DEFAULT


Comment:            NASA, AMES RESEARCH CENTER, 940DF5, #885/0229  GWJ (@ 23-c)
Calculation:        


UV SBW:                       1.50 nanometers
Wavelength UV Rate:           300.000 nanometers/minute
Wavelength UV Interval:       0.165 nanometers
Wavelength UV SAT:            0.0333 seconds
UV Energy:                    263.027 

Indep NIR Mode:               Off 

Baseline Correct:             On  

Current Cycle No:             1 

Source Change WL:             360.0 nanometers
Detector Change WL:           860.0 nanometers

Beam Mode:                    Double beam 
Beam Interchange:             Normal 

Slit Height:                  Full height 

Signal/Noise Mode:            Off 

Abscissa Mode:                Wavelength /nm 
Abscissa Control:             Normal
Min. Abscissa Value:          300.165 
Max. Abscissa Value:          1200 

Prim Ordinate Mode:           A 
Prim Ord Factor:              1 
Min. Ordinate Value:          0.312812 
Max. Ordinate Value:          9.9999 










X-Y PAIRS

Over Abscissa Range 300.165 Wavelength /nm to 1200 Wavelength /nm
Using Abscissa Interval: 1 Wavelength /nm

 Wavelength /nm      A      
 ============== =========== 

  1200           10.000
  1199           10.000
  1198           10.000
  1197           10.000
  1196           10.000
  1195           10.000
  1194           10.000
  1193           10.000
  1192           10.000
  1191           10.000
  1190           10.000
  1189           10.000
  1188           10.000
  1187           10.000
  1186           10.000
  1185           10.000
  1184           10.000
  1183           10.000
  1182           10.000
  1181           10.000
  1180           10.000
  1179           10.000
  1178           7.272
  1177           10.000
  1176           10.000
  1175           10.000
  1174           10.000
  1173           10.000
  1172           10.000
  1171           10.000
  1170           10.000

  1169           10.000
  1168           10.000
  1167           10.000
  1166           10.000
  1165           10.000
  1164           10.000
  1163           10.000
  1162           10.000
  1161           10.000
  1160           10.000
  1159           10.000
  1158           10.000
  1157           6.788
  1156           10.000
  1155           10.000
  1154           10.000
  1153           10.000
  1152           5.725
  1151           10.000
  1150           10.000
  1149           10.000
  1148           10.000
  1147           6.369
  1146           10.000
  1145           8.726
  1144           10.000
  1143           10.000
  1142           10.000
  1141           10.000
  1140           10.000
  1139           10.000
  1138           10.000
  1137           8.923
  1136           10.000
  1135           6.351
  1134           10.000
  1133           10.000
  1132           10.000
  1131           10.000
  1130           10.000
  1129           10.000
  1128           10.000
  1127           10.000
  1126           10.000
  1125           10.000

  1124           10.000
  1123           10.000
  1122           10.000
  1121           10.000
  1120           10.000
  1119           10.000
  1118           10.000
  1117           10.000
  1116           10.000
  1115           10.000
  1114           10.000
  1113           10.000
  1112           10.000
  1111           10.000
  1110           10.000
  1109           10.000
  1108           10.000
  1107           10.000
  1106           10.000
  1105           10.000
  1104           10.000
  1103           10.000
  1102           10.000
  1101           10.000
  1100           10.000
  1099           10.000
  1098           10.000
  1097           10.000
  1096           10.000
  1095           10.000
  1094           10.000
  1093           10.000
  1092           10.000
  1091           10.000
  1090           10.000
  1089           10.000
  1088           10.000
  1087           10.000
  1086           10.000
  1085           10.000
  1084           10.000
  1083           10.000
  1082           10.000
  1081           10.000
  1080           10.000

  1079           10.000
  1078           10.000
  1077           10.000
  1076           10.000
  1075           10.000
  1074           10.000
  1073           10.000
  1072           10.000
  1071           10.000
  1070           10.000
  1069           10.000
  1068           10.000
  1067           10.000
  1066           10.000
  1065           10.000
  1064           10.000
  1063           10.000
  1062           10.000
  1061           10.000
  1060           10.000
  1059           10.000
  1058           10.000
  1057           10.000
  1056           10.000
  1055           10.000
  1054           10.000
  1053           10.000
  1052           10.000
  1051           10.000
  1050           10.000
  1049           10.000
  1048           10.000
  1047           10.000
  1046           10.000
  1045           10.000
  1044           10.000
  1043           10.000
  1042           10.000
  1041           10.000
  1040           10.000
  1039           10.000
  1038           10.000
  1037           10.000
  1036           10.000
  1035           10.000

  1034           10.000
  1033           10.000
  1032           10.000
  1031           10.000
  1030           10.000
  1029           10.000
  1028           10.000
  1027           10.000
  1026           10.000
  1025           10.000
  1024           10.000
  1023           10.000
  1022           10.000
  1021           10.000
  1020           10.000
  1019           10.000
  1018           10.000
  1017           10.000
  1016           10.000
  1015           10.000
  1014           10.000
  1013           10.000
  1012           10.000
  1011           10.000
  1010           10.000
  1009           10.000
  1008           10.000
  1007           10.000
  1006           10.000
  1005           6.698
  1004           10.000
  1003           10.000
  1002           10.000
  1001           10.000
  1000           10.000
  999.0          10.000
  998.0          10.000
  997.0          10.000
  996.0          10.000
  995.0          10.000
  994.0          10.000
  993.0          10.000
  992.0          10.000
  991.0          10.000
  990.0          10.000

  989.0          10.000
  988.0          10.000
  987.0          4.330
  986.0          10.000
  985.0          10.000
  984.0          10.000
  983.0          10.000
  982.0          10.000
  981.0          6.666
  980.0          10.000
  979.0          10.000
  978.0          10.000
  977.0          10.000
  976.0          10.000
  975.0          10.000
  974.0          10.000
  973.0          10.000
  972.0          10.000
  971.0          10.000
  970.0          10.000
  969.0          5.205
  968.0          10.000
  967.0          8.772
  966.0          7.442
  965.0          10.000
  964.0          10.000
  963.0          4.457
  962.0          7.163
  961.0          4.309
  960.0          4.052
  959.0          3.988
  958.0          3.802
  957.0          3.679
  956.0          3.498
  955.0          3.311
  954.0          3.106
  953.0          2.875
  952.0          2.650
  951.0          2.387
  950.0          2.095
  949.0          1.776
  948.0          1.505
  947.0          1.296
  946.0          1.196
  945.0          1.099

  944.0          0.9270
  943.0          0.7510
  942.0          0.5728
  941.0          0.4344
  940.0          0.3198
  939.0          0.3572
  938.0          0.4757
  937.0          0.6072
  936.0          0.7710
  935.0          0.9360
  934.0          1.069
  933.0          1.226
  932.0          1.316
  931.0          1.438
  930.0          1.575
  929.0          1.763
  928.0          1.968
  927.0          2.210
  926.0          2.430
  925.0          2.713
  924.0          2.990
  923.0          3.192
  922.0          3.387
  921.0          3.560
  920.0          3.651
  919.0          3.754
  918.0          3.792
  917.0          3.902
  916.0          4.087
  915.0          4.064
  914.0          4.127
  913.0          4.092
  912.0          4.143
  911.0          4.256
  910.0          4.455
  909.0          4.484
  908.0          5.522
  907.0          4.811
  906.0          4.497
  905.0          6.023
  904.0          5.514
  903.0          10.000
  902.0          10.000
  901.0          10.000
  900.0          5.511

  899.0          10.000
  898.0          10.000
  897.0          10.000
  896.0          10.000
  895.0          10.000
  894.0          10.000
  893.0          10.000
  892.0          10.000
  891.0          10.000
  890.0          10.000
  889.0          10.000
  888.0          10.000
  887.0          6.230
  886.0          7.359
  885.0          10.000
  884.0          10.000
  883.0          10.000
  882.0          10.000
  881.0          10.000
  880.0          10.000
  879.0          10.000
  878.0          10.000
  877.0          10.000
  876.0          10.000
  875.0          10.000
  874.0          10.000
  873.0          10.000
  872.0          10.000
  871.0          10.000
  870.0          10.000
  869.0          10.000
  868.0          10.000
  867.0          10.000
  866.0          10.000
  865.0          10.000
  864.0          10.000
  863.0          10.000
  862.0          10.000
  861.0          10.000
  860.0          10.000
  859.0          5.551
  858.0          9.030
  857.0          4.928
  856.0          5.725
  855.0          5.154

  854.0          7.337
  853.0          8.565
  852.0          5.386
  851.0          4.615
  850.0          8.203
  849.0          5.687
  848.0          6.649
  847.0          5.281
  846.0          5.277
  845.0          9.859
  844.0          5.293
  843.0          5.599
  842.0          4.873
  841.0          8.999
  840.0          5.490
  839.0          10.000
  838.0          8.371
  837.0          8.065
  836.0          5.339
  835.0          5.874
  834.0          8.010
  833.0          10.000
  832.0          6.328
  831.0          10.000
  830.0          10.000
  829.0          5.298
  828.0          6.251
  827.0          5.629
  826.0          9.518
  825.0          10.000
  824.0          10.000
  823.0          8.823
  822.0          10.000
  821.0          10.000
  820.0          7.558
  819.0          7.951
  818.0          10.000
  817.0          8.622
  816.0          5.559
  815.0          5.576
  814.0          6.323
  813.0          10.000
  812.0          5.953
  811.0          5.712
  810.0          9.612

  809.0          9.398
  808.0          10.000
  807.0          5.487
  806.0          6.787
  805.0          10.000
  804.0          10.000
  803.0          7.520
  802.0          10.000
  801.0          10.000
  800.0          5.841
  799.0          5.953
  798.0          10.000
  797.0          5.714
  796.0          7.007
  795.0          5.419
  794.0          5.747
  793.0          10.000
  792.0          9.241
  791.0          9.001
  790.0          6.116
  789.0          8.763
  788.0          8.083
  787.0          8.038
  786.0          7.497
  785.0          5.555
  784.0          7.238
  783.0          9.122
  782.0          6.777
  781.0          5.618
  780.0          9.587
  779.0          10.000
  778.0          9.861
  777.0          6.015
  776.0          6.091
  775.0          6.481
  774.0          10.000
  773.0          8.112
  772.0          10.000
  771.0          10.000
  770.0          7.958
  769.0          10.000
  768.0          10.000
  767.0          10.000
  766.0          6.975
  765.0          10.000

  764.0          9.485
  763.0          10.000
  762.0          5.432
  761.0          6.062
  760.0          10.000
  759.0          7.229
  758.0          8.991
  757.0          5.866
  756.0          7.215
  755.0          6.251
  754.0          7.834
  753.0          7.639
  752.0          7.337
  751.0          6.570
  750.0          10.000
  749.0          6.532
  748.0          10.000
  747.0          9.661
  746.0          6.081
  745.0          5.894
  744.0          10.000
  743.0          10.000
  742.0          7.230
  741.0          9.265
  740.0          10.000
  739.0          6.120
  738.0          7.824
  737.0          10.000
  736.0          8.193
  735.0          7.592
  734.0          8.971
  733.0          10.000
  732.0          7.471
  731.0          6.147
  730.0          6.627
  729.0          10.000
  728.0          7.336
  727.0          6.623
  726.0          6.425
  725.0          7.005
  724.0          10.000
  723.0          7.519
  722.0          8.501
  721.0          6.677
  720.0          10.000

  719.0          7.639
  718.0          7.882
  717.0          5.915
  716.0          10.000
  715.0          7.158
  714.0          6.374
  713.0          9.889
  712.0          9.914
  711.0          6.724
  710.0          9.491
  709.0          7.889
  708.0          10.000
  707.0          7.371
  706.0          7.808
  705.0          6.491
  704.0          8.242
  703.0          6.329
  702.0          6.865
  701.0          6.341
  700.0          8.022
  699.0          6.907
  698.0          9.515
  697.0          6.811
  696.0          10.000
  695.0          10.000
  694.0          7.568
  693.0          7.378
  692.0          6.795
  691.0          10.000
  690.0          10.000
  689.0          6.834
  688.0          6.906
  687.0          7.978
  686.0          10.000
  685.0          8.082
  684.0          5.922
  683.0          9.253
  682.0          10.000
  681.0          7.355
  680.0          10.000
  679.0          6.108
  678.0          6.444
  677.0          6.260
  676.0          9.326
  675.0          10.000

  674.0          6.990
  673.0          6.509
  672.0          7.107
  671.0          8.365
  670.0          8.324
  669.0          7.697
  668.0          9.042
  667.0          7.007
  666.0          6.754
  665.0          6.809
  664.0          6.596
  663.0          10.000
  662.0          7.290
  661.0          9.672
  660.0          10.000
  659.0          6.632
  658.0          6.907
  657.0          10.000
  656.0          8.054
  655.0          10.000
  654.0          8.402
  653.0          10.000
  652.0          7.576
  651.0          9.330
  650.0          10.000
  649.0          6.794
  648.0          10.000
  647.0          9.884
  646.0          6.485
  645.0          10.000
  644.0          10.000
  643.0          7.143
  642.0          10.000
  641.0          8.946
  640.0          10.000
  639.0          8.771
  638.0          6.881
  637.0          8.488
  636.0          6.835
  635.0          6.246
  634.0          6.349
  633.0          6.722
  632.0          10.000
  631.0          6.432
  630.0          6.524

  629.0          10.000
  628.0          6.402
  627.0          6.501
  626.0          8.073
  625.0          7.487
  624.0          8.728
  623.0          6.675
  622.0          10.000
  621.0          8.601
  620.0          8.998
  619.0          8.276
  618.0          10.000
  617.0          7.352
  616.0          9.604
  615.0          7.155
  614.0          10.000
  613.0          9.924
  612.0          10.000
  611.0          10.000
  610.0          9.295
  609.0          8.957
  608.0          8.905
  607.0          8.677
  606.0          6.596
  605.0          8.295
  604.0          8.748
  603.0          7.594
  602.0          10.000
  601.0          9.191
  600.0          7.583
  599.0          7.080
  598.0          10.000
  597.0          10.00
  596.0          9.783
  595.0          10.000
  594.0          6.422
  593.0          6.418
  592.0          10.000
  591.0          6.642
  590.0          10.000
  589.0          10.000
  588.0          10.000
  587.0          10.000
  586.0          9.156
  585.0          6.671

  584.0          6.465
  583.0          10.000
  582.0          6.958
  581.0          6.502
  580.0          10.000
  579.0          9.673
  578.0          6.679
  577.0          9.504
  576.0          7.241
  575.0          6.477
  574.0          8.179
  573.0          8.649
  572.0          6.868
  571.0          6.423
  570.0          10.000
  569.0          7.870
  568.0          10.000
  567.0          7.529
  566.0          10.000
  565.0          9.774
  564.0          5.948
  563.0          7.163
  562.0          9.857
  561.0          8.681
  560.0          9.829
  559.0          10.000
  558.0          10.000
  557.0          10.000
  556.0          6.705
  555.0          10.000
  554.0          8.625
  553.0          10.000
  552.0          10.000
  551.0          7.935
  550.0          9.602
  549.0          9.669
  548.0          6.055
  547.0          10.000
  546.0          10.000
  545.0          9.409
  544.0          9.286
  543.0          10.000
  542.0          10.000
  541.0          8.536
  540.0          10.000

  539.0          10.000
  538.0          8.655
  537.0          10.000
  536.0          6.244
  535.0          6.091
  534.0          10.000
  533.0          6.189
  532.0          10.000
  531.0          10.000
  530.0          10.000
  529.0          6.461
  528.0          10.000
  527.0          9.357
  526.0          7.312
  525.0          8.318
  524.0          10.000
  523.0          6.740
  522.0          10.000
  521.0          10.000
  520.0          10.000
  519.0          8.984
  518.0          7.011
  517.0          10.000
  516.0          6.825
  515.0          6.321
  514.0          6.393
  513.0          9.636
  512.0          7.996
  511.0          7.070
  510.0          10.000
  509.0          8.832
  508.0          10.000
  507.0          7.893
  506.0          8.969
  505.0          8.360
  504.0          9.399
  503.0          6.623
  502.0          10.000
  501.0          9.341
  500.0          6.903
  499.0          6.184
  498.0          6.274
  497.0          7.391
  496.0          6.205
  495.0          6.370

  494.0          6.366
  493.0          7.833
  492.0          10.000
  491.0          6.123
  490.0          8.131
  489.0          7.344
  488.0          7.748
  487.0          10.000
  486.0          9.173
  485.0          9.358
  484.0          6.282
  483.0          6.212
  482.0          6.254
  481.0          6.318
  480.0          10.000
  479.0          10.000
  478.0          6.957
  477.0          10.000
  476.0          10.000
  475.0          8.421
  474.0          6.319
  473.0          10.000
  472.0          10.000
  471.0          10.000
  470.0          8.900
  469.0          7.254
  468.0          6.893
  467.0          10.000
  466.0          10.000
  465.0          10.00
  464.0          9.776
  463.0          8.252
  462.0          10.000
  461.0          10.000
  460.0          10.000
  459.0          7.326
  458.0          6.300
  457.0          7.178
  456.0          7.016
  455.0          7.878
  454.0          6.315
  453.0          7.614
  452.0          7.069
  451.0          9.450
  450.0          9.670

  449.0          6.489
  448.0          9.888
  447.0          9.698
  446.0          10.000
  445.0          6.744
  444.0          6.873
  443.0          6.381
  442.0          10.000
  441.0          8.222
  440.0          8.011
  439.0          6.663
  438.0          8.646
  437.0          6.386
  436.0          7.349
  435.0          10.000
  434.0          7.764
  433.0          6.868
  432.0          10.00
  431.0          9.782
  430.0          10.000
  429.0          6.217
  428.0          7.721
  427.0          8.872
  426.0          7.890
  425.0          10.000
  424.0          8.780
  423.0          8.327
  422.0          8.414
  421.0          8.711
  420.0          9.009
  419.0          10.000
  418.0          10.000
  417.0          6.346
  416.0          6.493
  415.0          6.389
  414.0          7.680
  413.0          5.651
  412.0          6.756
  411.0          8.299
  410.0          5.739
  409.0          10.000
  408.0          5.482
  407.0          8.077
  406.0          7.430
  405.0          8.686

  404.0          10.000
  403.0          10.000
  402.0          6.322
  401.0          6.152
  400.0          9.756
  399.0          10.000
  398.0          10.000
  397.0          9.644
  396.0          5.673
  395.0          10.000
  394.0          10.000
  393.0          7.906
  392.0          8.466
  391.0          8.197
  390.0          7.530
  389.0          7.411
  388.0          10.000
  387.0          10.000
  386.0          6.339
  385.0          10.000
  384.0          9.590
  383.0          10.000
  382.0          9.881
  381.0          6.296
  380.0          9.409
  379.0          10.000
  378.0          8.789
  377.0          8.534
  376.0          8.446
  375.0          8.010
  374.0          7.853
  373.0          10.000
  372.0          10.000
  371.0          5.814
  370.0          5.426
  369.0          10.000
  368.0          6.747
  367.0          6.307
  366.0          10.000
  365.0          9.731
  364.0          5.674
  363.0          9.114
  362.0          8.816
  361.0          8.558
  360.0          10.000

  359.0          5.357
  358.0          7.573
  357.0          7.312
  356.0          4.669
  355.0          10.000
  354.0          6.197
  353.0          10.000
  352.0          9.376
  351.0          5.931
  350.0          9.865
  349.0          5.251
  348.0          5.306
  347.0          4.934
  346.0          10.000
  345.0          5.271
  344.0          8.267
  343.0          10.000
  342.0          10.000
  341.0          5.322
  340.0          10.000
  339.0          5.508
  338.0          6.727
  337.0          5.080
  336.0          6.205
  335.0          10.000
  334.0          5.568
  333.0          10.000
  332.0          10.000
  331.0          7.157
  330.0          5.485
  329.0          4.934
  328.0          8.944
  327.0          5.451
  326.0          7.500
  325.0          7.778
  324.0          10.000
  323.0          10.000
  322.0          8.260
  321.0          10.000
  320.0          9.144
  319.0          5.404
  318.0          5.596
  317.0          9.866
  316.0          5.882
  315.0          9.606

  314.0          5.697
  313.0          6.295
  312.0          5.070
  311.0          8.473
  310.0          7.415
  309.0          7.587
  308.0          7.753
  307.0          7.971
  306.0          10.000
  305.0          6.559
  304.0          7.428
  303.0          7.131
  302.0          9.516
  301.0          10.000

[Graphics:Overlaid 1]
